S05587
27-06-2016_07:10:03
Saved at time: 748981626 milliseconds
Integration time: 4000000
Scans to average: 0
Boxcar smoothing: 0
Wavelengths	Intensities
337.35134888	1912.00000000
337.80362194	1970.00000000
338.25595141	2052.00000000
338.70833725	1995.00000000
339.16077942	1893.00000000
339.61327788	1836.00000000
340.06583261	1952.00000000
340.51844356	1685.00000000
340.97111069	1751.00000000
341.42383397	1707.00000000
341.87661336	1602.00000000
342.32944883	1758.00000000
342.78234033	1755.00000000
343.23528784	1835.00000000
343.68829131	1989.00000000
344.14135070	1832.00000000
344.59446599	1934.00000000
345.04763714	1787.00000000
345.50086410	1703.00000000
345.95414684	1991.00000000
346.40748532	1830.00000000
346.86087951	1821.00000000
347.31432937	1928.00000000
347.76783486	2014.00000000
348.22139595	1862.00000000
348.67501260	1846.00000000
349.12868478	1926.00000000
349.58241244	1813.00000000
350.03619554	1941.00000000
350.49003406	1884.00000000
350.94392796	1869.00000000
351.39787720	1727.00000000
351.85188173	1844.00000000
352.30594153	1682.00000000
352.76005657	1814.00000000
353.21422679	1690.00000000
353.66845217	1920.00000000
354.12273266	1709.00000000
354.57706824	1762.00000000
355.03145886	1825.00000000
355.48590449	1890.00000000
355.94040509	1909.00000000
356.39496062	1845.00000000
356.84957105	1833.00000000
357.30423634	1930.00000000
357.75895646	1927.00000000
358.21373136	1793.00000000
358.66856102	1674.00000000
359.12344538	1895.00000000
359.57838442	1911.00000000
360.03337811	1576.00000000
360.48842639	1903.00000000
360.94352924	1651.00000000
361.39868662	1887.00000000
361.85389850	1873.00000000
362.30916483	1887.00000000
362.76448558	1946.00000000
363.21986071	1682.00000000
363.67529018	1768.00000000
364.13077397	1919.00000000
364.58631202	1929.00000000
365.04190431	1755.00000000
365.49755080	1659.00000000
365.95325145	1980.00000000
366.40900623	1708.00000000
366.86481509	1915.00000000
367.32067801	1986.00000000
367.77659494	1913.00000000
368.23256584	1960.00000000
368.68859069	1884.00000000
369.14466944	1770.00000000
369.60080206	1902.00000000
370.05698851	1751.00000000
370.51322875	1541.00000000
370.96952275	1719.00000000
371.42587047	1984.00000000
371.88227187	1997.00000000
372.33872691	1982.00000000
372.79523557	1735.00000000
373.25179780	1675.00000000
373.70841357	1872.00000000
374.16508283	1853.00000000
374.62180556	1892.00000000
375.07858171	1959.00000000
375.53541125	1958.00000000
375.99229415	1959.00000000
376.44923035	1609.00000000
376.90621984	1765.00000000
377.36326257	1923.00000000
377.82035850	1764.00000000
378.27750760	1798.00000000
378.73470984	879.00000000
379.19196516	1772.00000000
379.64927355	1943.00000000
380.10663495	1439.00000000
380.56404934	1753.00000000
381.02151668	1842.00000000
381.47903693	1980.00000000
381.93661005	1797.00000000
382.39423600	1712.00000000
382.85191476	1927.00000000
383.30964628	1798.00000000
383.76743053	1773.00000000
384.22526746	1840.00000000
384.68315705	1707.00000000
385.14109926	1945.00000000
385.59909404	1824.00000000
386.05714137	1846.00000000
386.51524120	1862.00000000
386.97339351	1803.00000000
387.43159824	1817.00000000
387.88985537	1884.00000000
388.34816486	1905.00000000
388.80652667	1829.00000000
389.26494076	1933.00000000
389.72340710	1891.00000000
390.18192566	1874.00000000
390.64049638	1848.00000000
391.09911925	1931.00000000
391.55779422	1684.00000000
392.01652125	1924.00000000
392.47530030	1869.00000000
392.93413135	1359.00000000
393.39301436	2005.00000000
393.85194927	1914.00000000
394.31093607	1634.00000000
394.76997472	1849.00000000
395.22906517	1774.00000000
395.68820739	1639.00000000
396.14740134	1938.00000000
396.60664699	2063.00000000
397.06594429	1779.00000000
397.52529322	1970.00000000
397.98469374	1929.00000000
398.44414581	1879.00000000
398.90364938	1657.00000000
399.36320444	1966.00000000
399.82281093	1892.00000000
400.28246882	1854.00000000
400.74217808	2034.00000000
401.20193867	1806.00000000
401.66175054	1891.00000000
402.12161368	2003.00000000
402.58152803	1894.00000000
403.04149356	1835.00000000
403.50151023	2033.00000000
403.96157802	1948.00000000
404.42169687	1924.00000000
404.88186676	1798.00000000
405.34208764	1775.00000000
405.80235949	1909.00000000
406.26268226	1749.00000000
406.72305591	1792.00000000
407.18348042	1991.00000000
407.64395574	2038.00000000
408.10448183	1938.00000000
408.56505866	1641.00000000
409.02568620	1762.00000000
409.48636440	1726.00000000
409.94709324	1851.00000000
410.40787266	1794.00000000
410.86870264	1621.00000000
411.32958314	1912.00000000
411.79051412	1796.00000000
412.25149554	1405.00000000
412.71252738	1629.00000000
413.17360958	1868.00000000
413.63474212	1894.00000000
414.09592496	1952.00000000
414.55715806	2069.00000000
415.01844138	1808.00000000
415.47977490	1778.00000000
415.94115856	1988.00000000
416.40259233	2028.00000000
416.86407619	1656.00000000
417.32561008	1704.00000000
417.78719398	1954.00000000
418.24882784	1801.00000000
418.71051164	2059.00000000
419.17224533	1715.00000000
419.63402887	2036.00000000
420.09586223	1991.00000000
420.55774538	1876.00000000
421.01967827	1870.00000000
421.48166087	1961.00000000
421.94369315	1771.00000000
422.40577506	2028.00000000
422.86790657	1883.00000000
423.33008764	1439.00000000
423.79231823	2082.00000000
424.25459832	2110.00000000
424.71692786	1902.00000000
425.17930681	2049.00000000
425.64173514	1974.00000000
426.10421281	2082.00000000
426.56673978	1939.00000000
427.02931602	1727.00000000
427.49194150	2115.00000000
427.95461617	2286.00000000
428.41733999	2284.00000000
428.88011294	2311.00000000
429.34293497	2351.00000000
429.80580604	2025.00000000
430.26872613	2307.00000000
430.73169519	2469.00000000
431.19471319	2421.00000000
431.65778008	2413.00000000
432.12089584	2481.00000000
432.58406043	2565.00000000
433.04727380	2071.00000000
433.51053593	2536.00000000
433.97384677	2902.00000000
434.43720630	2817.00000000
434.90061446	2588.00000000
435.36407123	3181.00000000
435.82757657	3488.00000000
436.29113044	3204.00000000
436.75473281	3432.00000000
437.21838363	3522.00000000
437.68208288	3571.00000000
438.14583051	3962.00000000
438.60962648	3779.00000000
439.07347077	4018.00000000
439.53736333	4344.00000000
440.00130413	4328.00000000
440.46529314	4760.00000000
440.92933030	4783.00000000
441.39341559	4718.00000000
441.85754898	5167.00000000
442.32173041	5471.00000000
442.78595986	5752.00000000
443.25023730	5848.00000000
443.71456267	6068.00000000
444.17893595	6597.00000000
444.64335711	6844.00000000
445.10782609	6576.00000000
445.57234287	7147.00000000
446.03690741	7443.00000000
446.50151967	7421.00000000
446.96617962	7640.00000000
447.43088721	7654.00000000
447.89564242	7842.00000000
448.36044520	7985.00000000
448.82529553	7766.00000000
449.29019335	7762.00000000
449.75513864	7279.00000000
450.22013135	7323.00000000
450.68517146	7119.00000000
451.15025892	6730.00000000
451.61539370	6386.00000000
452.08057576	6402.00000000
452.54580506	6224.00000000
453.01108157	5985.00000000
453.47640525	5788.00000000
453.94177607	5456.00000000
454.40719398	5244.00000000
454.87265895	4951.00000000
455.33817095	5023.00000000
455.80372993	4844.00000000
456.26933586	4828.00000000
456.73498870	4653.00000000
457.20068842	4727.00000000
457.66643498	4622.00000000
458.13222835	4007.00000000
458.59806847	3436.00000000
459.06395533	4318.00000000
459.52988888	4058.00000000
459.99586908	4278.00000000
460.46189590	4284.00000000
460.92796931	3802.00000000
461.39408926	4070.00000000
461.86025571	3770.00000000
462.32646864	3846.00000000
462.79272800	3758.00000000
463.25903377	3740.00000000
463.72538589	3658.00000000
464.19178433	3457.00000000
464.65822906	3212.00000000
465.12472005	3314.00000000
465.59125725	3218.00000000
466.05784062	3206.00000000
466.52447013	3091.00000000
466.99114575	2913.00000000
467.45786744	2926.00000000
467.92463515	2848.00000000
468.39144886	2791.00000000
468.85830852	2613.00000000
469.32521410	2690.00000000
469.79216557	2746.00000000
470.25916288	2611.00000000
470.72620600	2635.00000000
471.19329489	2454.00000000
471.66042952	2494.00000000
472.12760985	2567.00000000
472.59483583	2485.00000000
473.06210745	2420.00000000
473.52942465	2566.00000000
473.99678740	2677.00000000
474.46419567	2159.00000000
474.93164941	2399.00000000
475.39914860	2427.00000000
475.86669319	2182.00000000
476.33428315	2537.00000000
476.80191844	2325.00000000
477.26959902	2406.00000000
477.73732486	2209.00000000
478.20509592	2245.00000000
478.67291216	2267.00000000
479.14077355	2317.00000000
479.60868006	2227.00000000
480.07663163	2277.00000000
480.54462824	2042.00000000
481.01266985	2239.00000000
481.48075642	2154.00000000
481.94888792	2258.00000000
482.41706430	2037.00000000
482.88528554	2129.00000000
483.35355160	2095.00000000
483.82186243	2201.00000000
484.29021801	2238.00000000
484.75861829	2090.00000000
485.22706324	2011.00000000
485.69555282	2193.00000000
486.16408699	2083.00000000
486.63266573	2009.00000000
487.10128898	1992.00000000
487.56995672	2159.00000000
488.03866891	2115.00000000
488.50742551	1952.00000000
488.97622648	1955.00000000
489.44507179	1640.00000000
489.91396139	1910.00000000
490.38289527	1775.00000000
490.85187337	2113.00000000
491.32089566	2135.00000000
491.78996210	2175.00000000
492.25907266	1950.00000000
492.72822730	1317.00000000
493.19742598	2091.00000000
493.66666867	2089.00000000
494.13595533	2124.00000000
494.60528591	2046.00000000
495.07466040	2175.00000000
495.54407874	2036.00000000
496.01354091	2116.00000000
496.48304686	2055.00000000
496.95259656	2146.00000000
497.42218997	2238.00000000
497.89182706	1927.00000000
498.36150779	2192.00000000
498.83123211	2150.00000000
499.30100000	2126.00000000
499.77081142	2289.00000000
500.24066633	2335.00000000
500.71056469	2185.00000000
501.18050648	2229.00000000
501.65049164	2389.00000000
502.12052014	2375.00000000
502.59059195	2431.00000000
503.06070704	2345.00000000
503.53086535	2113.00000000
504.00106686	1960.00000000
504.47131154	2461.00000000
504.94159933	2481.00000000
505.41193021	2444.00000000
505.88230414	2718.00000000
506.35272109	2807.00000000
506.82318101	2889.00000000
507.29368386	2798.00000000
507.76422962	2983.00000000
508.23481825	2988.00000000
508.70544970	2908.00000000
509.17612395	2942.00000000
509.64684095	3149.00000000
510.11760067	3262.00000000
510.58840307	3358.00000000
511.05924812	3404.00000000
511.53013577	3528.00000000
512.00106600	3523.00000000
512.47203875	3731.00000000
512.94305401	3629.00000000
513.41411173	3724.00000000
513.88521187	3875.00000000
514.35635440	3916.00000000
514.82753927	3737.00000000
515.29876647	3896.00000000
515.77003593	4174.00000000
516.24134764	4017.00000000
516.71270155	4343.00000000
517.18409763	4501.00000000
517.65553584	4579.00000000
518.12701614	4609.00000000
518.59853850	4786.00000000
519.07010287	4397.00000000
519.54170923	4900.00000000
520.01335753	4674.00000000
520.48504774	5083.00000000
520.95677983	5195.00000000
521.42855375	5150.00000000
521.90036946	5322.00000000
522.37222694	5353.00000000
522.84412615	5483.00000000
523.31606704	5717.00000000
523.78804958	5778.00000000
524.26007374	5792.00000000
524.73213947	6005.00000000
525.20424675	6004.00000000
525.67639553	6144.00000000
526.14858578	6411.00000000
526.62081745	6194.00000000
527.09309052	6412.00000000
527.56540495	6669.00000000
528.03776070	6585.00000000
528.51015773	6632.00000000
528.98259601	6791.00000000
529.45507550	6658.00000000
529.92759616	6789.00000000
530.40015795	6812.00000000
530.87276085	6858.00000000
531.34540481	6975.00000000
531.81808979	6949.00000000
532.29081576	6847.00000000
532.76358269	7082.00000000
533.23639053	7135.00000000
533.70923924	6979.00000000
534.18212880	7266.00000000
534.65505917	7399.00000000
535.12803030	7360.00000000
535.60104217	7505.00000000
536.07409473	7463.00000000
536.54718794	7493.00000000
537.02032178	7629.00000000
537.49349620	6389.00000000
537.96671117	7569.00000000
538.43996665	7855.00000000
538.91326261	7753.00000000
539.38659900	7423.00000000
539.85997579	7866.00000000
540.33339294	7947.00000000
540.80685042	7669.00000000
541.28034819	7953.00000000
541.75388622	8036.00000000
542.22746446	7459.00000000
542.70108287	7369.00000000
543.17474144	7875.00000000
543.64844010	7998.00000000
544.12217884	7706.00000000
544.59595761	7838.00000000
545.06977637	7983.00000000
545.54363510	7920.00000000
546.01753374	7931.00000000
546.49147227	7865.00000000
546.96545065	7802.00000000
547.43946884	7758.00000000
547.91352680	7658.00000000
548.38762450	7524.00000000
548.86176191	7206.00000000
549.33593897	7693.00000000
549.81015567	7285.00000000
550.28441195	7474.00000000
550.75870779	7443.00000000
551.23304315	6944.00000000
551.70741799	7573.00000000
552.18183227	7541.00000000
552.65628595	7498.00000000
553.13077901	7383.00000000
553.60531140	7212.00000000
554.07988309	7390.00000000
554.55449403	7395.00000000
555.02914420	7484.00000000
555.50383356	7554.00000000
555.97856206	7539.00000000
556.45332968	7133.00000000
556.92813637	7113.00000000
557.40298210	7337.00000000
557.87786683	7297.00000000
558.35279053	7331.00000000
558.82775315	7157.00000000
559.30275467	7366.00000000
559.77779504	7335.00000000
560.25287423	7310.00000000
560.72799221	7037.00000000
561.20314892	7481.00000000
561.67834435	7123.00000000
562.15357844	7251.00000000
562.62885117	7207.00000000
563.10416249	7194.00000000
563.57951238	7143.00000000
564.05490079	7310.00000000
564.53032769	7065.00000000
565.00579303	7233.00000000
565.48129679	6924.00000000
565.95683893	7112.00000000
566.43241940	7023.00000000
566.90803818	6735.00000000
567.38369523	6969.00000000
567.85939050	6645.00000000
568.33512397	6847.00000000
568.81089559	6938.00000000
569.28670533	6902.00000000
569.76255316	6840.00000000
570.23843902	6692.00000000
570.71436290	6797.00000000
571.19032475	6805.00000000
571.66632453	6757.00000000
572.14236222	6707.00000000
572.61843776	6735.00000000
573.09455113	6394.00000000
573.57070228	6672.00000000
574.04689119	6710.00000000
574.52311781	6573.00000000
574.99938211	6550.00000000
575.47568405	6833.00000000
575.95202359	6776.00000000
576.42840070	5985.00000000
576.90481534	6844.00000000
577.38126747	6581.00000000
577.85775706	6867.00000000
578.33428407	6896.00000000
578.81084846	6906.00000000
579.28745020	6714.00000000
579.76408925	6747.00000000
580.24076557	6949.00000000
580.71747912	6346.00000000
581.19422988	6790.00000000
581.67101780	6740.00000000
582.14784284	6961.00000000
582.62470497	6719.00000000
583.10160416	6698.00000000
583.57854035	6763.00000000
584.05551353	6489.00000000
584.53252365	6795.00000000
585.00957067	6781.00000000
585.48665456	6706.00000000
585.96377529	6754.00000000
586.44093280	6796.00000000
586.91812708	6645.00000000
587.39535807	6738.00000000
587.87262575	6613.00000000
588.34993007	6493.00000000
588.82727101	6369.00000000
589.30464852	6538.00000000
589.78206256	6566.00000000
590.25951311	6648.00000000
590.73700012	6445.00000000
591.21452355	6364.00000000
591.69208338	6271.00000000
592.16967956	6555.00000000
592.64731205	6281.00000000
593.12498082	6368.00000000
593.60268584	6573.00000000
594.08042706	6289.00000000
594.55820445	6364.00000000
595.03601797	6094.00000000
595.51386759	6305.00000000
595.99175326	6402.00000000
596.46967496	6135.00000000
596.94763264	6337.00000000
597.42562627	6222.00000000
597.90365581	5982.00000000
598.38172122	6110.00000000
598.85982248	6233.00000000
599.33795953	5901.00000000
599.81613235	5789.00000000
600.29434089	6160.00000000
600.77258513	5837.00000000
601.25086501	6360.00000000
601.72918052	6132.00000000
602.20753161	6231.00000000
602.68591823	6134.00000000
603.16434037	6130.00000000
603.64279797	5833.00000000
604.12129101	5957.00000000
604.59981945	5992.00000000
605.07838324	6042.00000000
605.55698236	5903.00000000
606.03561676	5803.00000000
606.51428641	5985.00000000
606.99299127	5873.00000000
607.47173131	5773.00000000
607.95050648	5812.00000000
608.42931676	5933.00000000
608.90816210	5842.00000000
609.38704248	5764.00000000
609.86595784	5714.00000000
610.34490816	5545.00000000
610.82389339	5706.00000000
611.30291351	5493.00000000
611.78196847	5640.00000000
612.26105823	5363.00000000
612.74018277	5482.00000000
613.21934204	5475.00000000
613.69853601	5497.00000000
614.17776464	5091.00000000
614.65702789	5392.00000000
615.13632573	5265.00000000
615.61565812	5242.00000000
616.09502502	5420.00000000
616.57442640	5149.00000000
617.05386221	4550.00000000
617.53333243	4919.00000000
618.01283702	4830.00000000
618.49237593	5124.00000000
618.97194914	5156.00000000
619.45155660	4841.00000000
619.93119828	5206.00000000
620.41087415	5056.00000000
620.89058415	4963.00000000
621.37032827	4832.00000000
621.85010646	4887.00000000
622.32991868	4789.00000000
622.80976490	4785.00000000
623.28964508	4809.00000000
623.76955919	4734.00000000
624.24950718	4785.00000000
624.72948902	4895.00000000
625.20950468	4794.00000000
625.68955412	4533.00000000
626.16963729	4402.00000000
626.64975417	4674.00000000
627.12990471	4628.00000000
627.61008889	4352.00000000
628.09030666	4679.00000000
628.57055798	4309.00000000
629.05084283	4573.00000000
629.53116115	4526.00000000
630.01151293	4391.00000000
630.49189811	4314.00000000
630.97231666	4249.00000000
631.45276855	4309.00000000
631.93325374	4246.00000000
632.41377219	4129.00000000
632.89432387	3953.00000000
633.37490873	4171.00000000
633.85552675	4066.00000000
634.33617788	4181.00000000
634.81686209	3987.00000000
635.29757934	4079.00000000
635.77832959	4013.00000000
636.25911281	3998.00000000
636.73992897	4023.00000000
637.22077801	3415.00000000
637.70165992	4010.00000000
638.18257464	3876.00000000
638.66352215	3746.00000000
639.14450240	3795.00000000
639.62551537	3681.00000000
640.10656101	3807.00000000
640.58763928	3665.00000000
641.06875016	3623.00000000
641.54989359	3722.00000000
642.03106956	3555.00000000
642.51227801	3699.00000000
642.99351892	3703.00000000
643.47479224	2905.00000000
643.95609794	3539.00000000
644.43743598	3335.00000000
644.91880633	3501.00000000
645.40020894	3401.00000000
645.88164379	3284.00000000
646.36311083	3553.00000000
646.84461003	3463.00000000
647.32614135	3407.00000000
647.80770476	3426.00000000
648.28930022	3427.00000000
648.77092768	3260.00000000
649.25258712	3067.00000000
649.73427850	3143.00000000
650.21600177	3088.00000000
650.69775691	3240.00000000
651.17954388	3188.00000000
651.66136264	3090.00000000
652.14321315	3230.00000000
652.62509538	3177.00000000
653.10700929	2949.00000000
653.58895484	3035.00000000
654.07093200	3201.00000000
654.55294072	3150.00000000
655.03498098	3110.00000000
655.51705274	2867.00000000
655.99915595	2960.00000000
656.48129059	2976.00000000
656.96345661	2809.00000000
657.44565398	2896.00000000
657.92788266	2873.00000000
658.41014262	2876.00000000
658.89243382	2880.00000000
659.37475621	2745.00000000
659.85710978	2800.00000000
660.33949447	2830.00000000
660.82191025	2671.00000000
661.30435708	2799.00000000
661.78683493	2740.00000000
662.26934377	2686.00000000
662.75188354	2797.00000000
663.23445423	2340.00000000
663.71705578	2594.00000000
664.19968817	2791.00000000
664.68235136	2694.00000000
665.16504530	2618.00000000
665.64776997	2513.00000000
666.13052532	2581.00000000
666.61331133	2564.00000000
667.09612794	2431.00000000
667.57897514	2601.00000000
668.06185287	2525.00000000
668.54476110	2430.00000000
669.02769980	2325.00000000
669.51066893	2454.00000000
669.99366845	2581.00000000
670.47669833	2518.00000000
670.95975852	2632.00000000
671.44284900	2434.00000000
671.92596972	2245.00000000
672.40912065	2511.00000000
672.89230175	2547.00000000
673.37551298	2382.00000000
673.85875431	2557.00000000
674.34202570	2394.00000000
674.82532712	2347.00000000
675.30865852	2407.00000000
675.79201988	2353.00000000
676.27541115	2416.00000000
676.75883229	2354.00000000
677.24228328	2474.00000000
677.72576406	2355.00000000
678.20927462	2500.00000000
678.69281490	1951.00000000
679.17638488	2166.00000000
679.65998451	2309.00000000
680.14361377	2354.00000000
680.62727260	2387.00000000
681.11096098	2238.00000000
681.59467887	2239.00000000
682.07842623	2203.00000000
682.56220303	2305.00000000
683.04600923	1932.00000000
683.52984478	2136.00000000
684.01370967	2102.00000000
684.49760384	2374.00000000
684.98152726	2262.00000000
685.46547989	2044.00000000
685.94946171	2257.00000000
686.43347266	2215.00000000
686.91751272	2309.00000000
687.40158185	2194.00000000
687.88568001	2264.00000000
688.36980716	2206.00000000
688.85396327	2172.00000000
689.33814829	2267.00000000
689.82236221	2260.00000000
690.30660496	2235.00000000
690.79087653	2204.00000000
691.27517687	2116.00000000
691.75950595	2277.00000000
692.24386373	2133.00000000
692.72825017	2312.00000000
693.21266523	2084.00000000
693.69710889	2061.00000000
694.18158109	2035.00000000
694.66608181	2125.00000000
695.15061101	2133.00000000
695.63516866	2053.00000000
696.11975470	2082.00000000
696.60436912	2178.00000000
697.08901187	1959.00000000
697.57368291	2113.00000000
698.05838221	1915.00000000
698.54310973	2030.00000000
699.02786544	1866.00000000
699.51264929	2118.00000000
699.99746125	2125.00000000
700.48230129	2140.00000000
700.96716936	2026.00000000
701.45206544	2114.00000000
701.93698948	1974.00000000
702.42194144	1999.00000000
702.90692130	2102.00000000
703.39192900	1772.00000000
703.87696453	2217.00000000
704.36202783	2138.00000000
704.84711888	2104.00000000
705.33223763	2081.00000000
705.81738405	2065.00000000
706.30255811	2173.00000000
706.78775976	2016.00000000
707.27298897	1968.00000000
707.75824570	2041.00000000
708.24352991	1881.00000000
708.72884158	1983.00000000
709.21418065	1989.00000000
709.69954710	1696.00000000
710.18494089	2047.00000000
710.67036198	1908.00000000
711.15581034	1954.00000000
711.64128592	2034.00000000
712.12678869	2066.00000000
712.61231862	2036.00000000
713.09787566	1797.00000000
713.58345979	1995.00000000
714.06907095	1991.00000000
714.55470913	1897.00000000
715.04037427	1983.00000000
715.52606635	1966.00000000
716.01178533	1988.00000000
716.49753116	2049.00000000
716.98330382	2053.00000000
717.46910326	1538.00000000
717.95492946	1793.00000000
718.44078236	1973.00000000
718.92666194	2020.00000000
719.41256816	1976.00000000
719.89850098	1904.00000000
720.38446037	1782.00000000
720.87044629	1914.00000000
721.35645870	1720.00000000
721.84249756	1983.00000000
722.32856284	2011.00000000
722.81465450	1987.00000000
723.30077251	1773.00000000
723.78691682	1883.00000000
724.27308741	1820.00000000
724.75928423	1867.00000000
725.24550724	1682.00000000
725.73175642	1801.00000000
726.21803172	1961.00000000
726.70433311	1910.00000000
727.19066055	1605.00000000
727.67701400	1813.00000000
728.16339343	1992.00000000
728.64979880	1945.00000000
729.13623007	1790.00000000
729.62268721	1922.00000000
730.10917018	1644.00000000
730.59567893	1796.00000000
731.08221345	1880.00000000
731.56877369	1844.00000000
732.05535960	2010.00000000
732.54197116	1979.00000000
733.02860834	1844.00000000
733.51527108	1790.00000000
734.00195936	1730.00000000
734.48867313	1854.00000000
734.97541237	1799.00000000
735.46217703	1991.00000000
735.94896708	1796.00000000
736.43578248	2020.00000000
736.92262320	1959.00000000
737.40948919	1893.00000000
737.89638043	1960.00000000
738.38329686	1969.00000000
738.87023847	1873.00000000
739.35720520	1687.00000000
739.84419703	1900.00000000
740.33121392	1923.00000000
740.81825582	1813.00000000
741.30532271	1435.00000000
741.79241455	1725.00000000
742.27953129	1879.00000000
742.76667291	2002.00000000
743.25383936	1967.00000000
743.74103061	1907.00000000
744.22824663	1942.00000000
744.71548737	1853.00000000
745.20275280	1534.00000000
745.69004288	1952.00000000
746.17735758	1926.00000000
746.66469685	1987.00000000
747.15206067	1778.00000000
747.63944899	1961.00000000
748.12686178	1875.00000000
748.61429900	1387.00000000
749.10176061	1917.00000000
749.58924659	1952.00000000
750.07675688	1955.00000000
750.56429146	1970.00000000
751.05185028	1796.00000000
751.53943332	1840.00000000
752.02704053	1491.00000000
752.51467187	1586.00000000
753.00232732	1600.00000000
753.49000683	1842.00000000
753.97771036	1970.00000000
754.46543789	1776.00000000
754.95318936	1861.00000000
755.44096476	1932.00000000
755.92876403	1814.00000000
756.41658715	1858.00000000
756.90443407	1977.00000000
757.39230476	1763.00000000
757.88019918	1649.00000000
758.36811730	1946.00000000
758.85605908	1900.00000000
759.34402448	1826.00000000
759.83201346	1603.00000000
760.32002599	1830.00000000
760.80806203	1610.00000000
761.29612155	1844.00000000
761.78420451	1856.00000000
762.27231086	1838.00000000
762.76044058	1936.00000000
763.24859363	1817.00000000
763.73676997	1714.00000000
764.22496956	1730.00000000
764.71319237	1800.00000000
765.20143836	1876.00000000
765.68970749	1888.00000000
766.17799973	1391.00000000
766.66631504	1646.00000000
767.15465338	1758.00000000
767.64301472	1668.00000000
768.13139902	1717.00000000
768.61980624	1798.00000000
769.10823635	1823.00000000
769.59668930	1731.00000000
770.08516507	1866.00000000
770.57366361	1702.00000000
771.06218489	1852.00000000
771.55072888	1712.00000000
772.03929553	1732.00000000
772.52788480	1860.00000000
773.01649667	1883.00000000
773.50513109	1545.00000000
773.99378804	1879.00000000
774.48246746	1873.00000000
774.97116932	1734.00000000
775.45989360	1777.00000000
775.94864024	1878.00000000
776.43740922	1717.00000000
776.92620050	1819.00000000
777.41501403	1612.00000000
777.90384979	1913.00000000
778.39270774	1782.00000000
778.88158784	1832.00000000
779.37049004	1868.00000000
779.85941433	1449.00000000
780.34836066	1779.00000000
780.83732898	1903.00000000
781.32631928	1864.00000000
781.81533150	1637.00000000
782.30436562	1647.00000000
782.79342159	1877.00000000
783.28249938	1854.00000000
783.77159895	1746.00000000
784.26072027	1725.00000000
784.74986329	1829.00000000
785.23902799	1792.00000000
785.72821432	1382.00000000
786.21742225	1858.00000000
786.70665174	1470.00000000
787.19590276	1812.00000000
787.68517526	1763.00000000
788.17446922	1145.00000000
788.66378459	1686.00000000
789.15312133	1580.00000000
789.64247942	1871.00000000
790.13185881	1839.00000000
790.62125947	1953.00000000
791.11068135	1759.00000000
791.60012443	1887.00000000
792.08958867	1621.00000000
792.57907402	1853.00000000
793.06858046	1587.00000000
793.55810795	1779.00000000
794.04765644	1745.00000000
794.53722591	1773.00000000
795.02681631	1805.00000000
795.51642762	1709.00000000
796.00605978	1820.00000000
796.49571277	1859.00000000
796.98538655	1811.00000000
797.47508108	1983.00000000
797.96479632	1770.00000000
798.45453224	1874.00000000
798.94428881	1761.00000000
799.43406597	1803.00000000
799.92386371	1766.00000000
800.41368198	1443.00000000
800.90352074	1865.00000000
801.39337996	1716.00000000
801.88325960	1496.00000000
802.37315962	1796.00000000
802.86307999	1811.00000000
803.35302067	1881.00000000
803.84298163	1813.00000000
804.33296282	1732.00000000
804.82296421	1874.00000000
805.31298576	1831.00000000
805.80302744	1785.00000000
806.29308921	1062.00000000
806.78317103	1863.00000000
807.27327287	1804.00000000
807.76339468	1712.00000000
808.25353644	1972.00000000
808.74369811	1896.00000000
809.23387964	1653.00000000
809.72408100	1792.00000000
810.21430216	1713.00000000
810.70454308	1851.00000000
811.19480372	1720.00000000
811.68508405	1801.00000000
812.17538402	1925.00000000
812.66570360	1815.00000000
813.15604276	1861.00000000
813.64640146	1745.00000000
814.13677965	1866.00000000
814.62717731	1881.00000000
815.11759440	1735.00000000
815.60803088	1903.00000000
816.09848671	1910.00000000
816.58896185	1777.00000000
817.07945628	1825.00000000
817.56996995	1488.00000000
818.06050283	1851.00000000
818.55105488	1829.00000000
819.04162606	1756.00000000
819.53221633	1894.00000000
820.02282567	1972.00000000
820.51345402	1870.00000000
821.00410137	1787.00000000
821.49476766	1484.00000000
821.98545286	1758.00000000
822.47615694	1793.00000000
822.96687986	1837.00000000

