S05587
27-06-2016_07:10:08
Saved at time: 748986815 milliseconds
Integration time: 4000000
Scans to average: 0
Boxcar smoothing: 0
Wavelengths	Intensities
337.35134888	1910.00000000
337.80362194	1964.00000000
338.25595141	2049.00000000
338.70833725	1991.00000000
339.16077942	1892.00000000
339.61327788	1837.00000000
340.06583261	1955.00000000
340.51844356	1681.00000000
340.97111069	1752.00000000
341.42383397	1707.00000000
341.87661336	1603.00000000
342.32944883	1749.00000000
342.78234033	1749.00000000
343.23528784	1835.00000000
343.68829131	1990.00000000
344.14135070	1832.00000000
344.59446599	1937.00000000
345.04763714	1781.00000000
345.50086410	1704.00000000
345.95414684	2001.00000000
346.40748532	1836.00000000
346.86087951	1825.00000000
347.31432937	1926.00000000
347.76783486	2013.00000000
348.22139595	1858.00000000
348.67501260	1849.00000000
349.12868478	1930.00000000
349.58241244	1820.00000000
350.03619554	1946.00000000
350.49003406	1883.00000000
350.94392796	1867.00000000
351.39787720	1723.00000000
351.85188173	1852.00000000
352.30594153	1681.00000000
352.76005657	1813.00000000
353.21422679	1688.00000000
353.66845217	1921.00000000
354.12273266	1709.00000000
354.57706824	1757.00000000
355.03145886	1826.00000000
355.48590449	1891.00000000
355.94040509	1911.00000000
356.39496062	1845.00000000
356.84957105	1834.00000000
357.30423634	1934.00000000
357.75895646	1927.00000000
358.21373136	1794.00000000
358.66856102	1671.00000000
359.12344538	1895.00000000
359.57838442	1911.00000000
360.03337811	1576.00000000
360.48842639	1902.00000000
360.94352924	1648.00000000
361.39868662	1882.00000000
361.85389850	1870.00000000
362.30916483	1888.00000000
362.76448558	1941.00000000
363.21986071	1683.00000000
363.67529018	1772.00000000
364.13077397	1915.00000000
364.58631202	1929.00000000
365.04190431	1748.00000000
365.49755080	1656.00000000
365.95325145	1979.00000000
366.40900623	1714.00000000
366.86481509	1917.00000000
367.32067801	1984.00000000
367.77659494	1914.00000000
368.23256584	1965.00000000
368.68859069	1887.00000000
369.14466944	1764.00000000
369.60080206	1903.00000000
370.05698851	1750.00000000
370.51322875	1549.00000000
370.96952275	1715.00000000
371.42587047	1987.00000000
371.88227187	1998.00000000
372.33872691	1985.00000000
372.79523557	1736.00000000
373.25179780	1675.00000000
373.70841357	1864.00000000
374.16508283	1856.00000000
374.62180556	1895.00000000
375.07858171	1964.00000000
375.53541125	1956.00000000
375.99229415	1964.00000000
376.44923035	1600.00000000
376.90621984	1761.00000000
377.36326257	1924.00000000
377.82035850	1760.00000000
378.27750760	1801.00000000
378.73470984	881.00000000
379.19196516	1774.00000000
379.64927355	1945.00000000
380.10663495	1446.00000000
380.56404934	1755.00000000
381.02151668	1837.00000000
381.47903693	1980.00000000
381.93661005	1794.00000000
382.39423600	1718.00000000
382.85191476	1925.00000000
383.30964628	1800.00000000
383.76743053	1775.00000000
384.22526746	1834.00000000
384.68315705	1701.00000000
385.14109926	1946.00000000
385.59909404	1821.00000000
386.05714137	1848.00000000
386.51524120	1863.00000000
386.97339351	1798.00000000
387.43159824	1818.00000000
387.88985537	1883.00000000
388.34816486	1915.00000000
388.80652667	1829.00000000
389.26494076	1928.00000000
389.72340710	1887.00000000
390.18192566	1872.00000000
390.64049638	1852.00000000
391.09911925	1935.00000000
391.55779422	1678.00000000
392.01652125	1924.00000000
392.47530030	1870.00000000
392.93413135	1356.00000000
393.39301436	2009.00000000
393.85194927	1911.00000000
394.31093607	1635.00000000
394.76997472	1849.00000000
395.22906517	1776.00000000
395.68820739	1646.00000000
396.14740134	1936.00000000
396.60664699	2059.00000000
397.06594429	1780.00000000
397.52529322	1974.00000000
397.98469374	1931.00000000
398.44414581	1874.00000000
398.90364938	1658.00000000
399.36320444	1969.00000000
399.82281093	1890.00000000
400.28246882	1860.00000000
400.74217808	2034.00000000
401.20193867	1806.00000000
401.66175054	1893.00000000
402.12161368	2001.00000000
402.58152803	1894.00000000
403.04149356	1832.00000000
403.50151023	2031.00000000
403.96157802	1949.00000000
404.42169687	1921.00000000
404.88186676	1797.00000000
405.34208764	1777.00000000
405.80235949	1912.00000000
406.26268226	1754.00000000
406.72305591	1791.00000000
407.18348042	1992.00000000
407.64395574	2033.00000000
408.10448183	1939.00000000
408.56505866	1639.00000000
409.02568620	1758.00000000
409.48636440	1724.00000000
409.94709324	1851.00000000
410.40787266	1803.00000000
410.86870264	1622.00000000
411.32958314	1904.00000000
411.79051412	1790.00000000
412.25149554	1406.00000000
412.71252738	1629.00000000
413.17360958	1867.00000000
413.63474212	1891.00000000
414.09592496	1955.00000000
414.55715806	2070.00000000
415.01844138	1799.00000000
415.47977490	1779.00000000
415.94115856	1987.00000000
416.40259233	2038.00000000
416.86407619	1655.00000000
417.32561008	1701.00000000
417.78719398	1957.00000000
418.24882784	1800.00000000
418.71051164	2056.00000000
419.17224533	1714.00000000
419.63402887	2033.00000000
420.09586223	1997.00000000
420.55774538	1877.00000000
421.01967827	1868.00000000
421.48166087	1956.00000000
421.94369315	1773.00000000
422.40577506	2025.00000000
422.86790657	1879.00000000
423.33008764	1438.00000000
423.79231823	2078.00000000
424.25459832	2106.00000000
424.71692786	1891.00000000
425.17930681	2043.00000000
425.64173514	1974.00000000
426.10421281	2075.00000000
426.56673978	1935.00000000
427.02931602	1714.00000000
427.49194150	2105.00000000
427.95461617	2276.00000000
428.41733999	2282.00000000
428.88011294	2298.00000000
429.34293497	2345.00000000
429.80580604	2007.00000000
430.26872613	2299.00000000
430.73169519	2465.00000000
431.19471319	2404.00000000
431.65778008	2399.00000000
432.12089584	2461.00000000
432.58406043	2546.00000000
433.04727380	2055.00000000
433.51053593	2514.00000000
433.97384677	2883.00000000
434.43720630	2800.00000000
434.90061446	2558.00000000
435.36407123	3163.00000000
435.82757657	3456.00000000
436.29113044	3161.00000000
436.75473281	3390.00000000
437.21838363	3486.00000000
437.68208288	3540.00000000
438.14583051	3925.00000000
438.60962648	3733.00000000
439.07347077	3972.00000000
439.53736333	4284.00000000
440.00130413	4273.00000000
440.46529314	4708.00000000
440.92933030	4734.00000000
441.39341559	4655.00000000
441.85754898	5098.00000000
442.32173041	5395.00000000
442.78595986	5675.00000000
443.25023730	5762.00000000
443.71456267	5967.00000000
444.17893595	6500.00000000
444.64335711	6743.00000000
445.10782609	6489.00000000
445.57234287	7053.00000000
446.03690741	7334.00000000
446.50151967	7293.00000000
446.96617962	7524.00000000
447.43088721	7532.00000000
447.89564242	7731.00000000
448.36044520	7854.00000000
448.82529553	7649.00000000
449.29019335	7641.00000000
449.75513864	7167.00000000
450.22013135	7219.00000000
450.68517146	7001.00000000
451.15025892	6623.00000000
451.61539370	6292.00000000
452.08057576	6312.00000000
452.54580506	6137.00000000
453.01108157	5898.00000000
453.47640525	5704.00000000
453.94177607	5393.00000000
454.40719398	5172.00000000
454.87265895	4888.00000000
455.33817095	4968.00000000
455.80372993	4776.00000000
456.26933586	4771.00000000
456.73498870	4591.00000000
457.20068842	4674.00000000
457.66643498	4564.00000000
458.13222835	3957.00000000
458.59806847	3385.00000000
459.06395533	4265.00000000
459.52988888	4006.00000000
459.99586908	4232.00000000
460.46189590	4235.00000000
460.92796931	3760.00000000
461.39408926	4023.00000000
461.86025571	3727.00000000
462.32646864	3806.00000000
462.79272800	3717.00000000
463.25903377	3708.00000000
463.72538589	3625.00000000
464.19178433	3415.00000000
464.65822906	3181.00000000
465.12472005	3279.00000000
465.59125725	3183.00000000
466.05784062	3183.00000000
466.52447013	3062.00000000
466.99114575	2884.00000000
467.45786744	2898.00000000
467.92463515	2824.00000000
468.39144886	2769.00000000
468.85830852	2587.00000000
469.32521410	2669.00000000
469.79216557	2723.00000000
470.25916288	2596.00000000
470.72620600	2619.00000000
471.19329489	2441.00000000
471.66042952	2483.00000000
472.12760985	2558.00000000
472.59483583	2463.00000000
473.06210745	2406.00000000
473.52942465	2557.00000000
473.99678740	2655.00000000
474.46419567	2153.00000000
474.93164941	2391.00000000
475.39914860	2409.00000000
475.86669319	2168.00000000
476.33428315	2519.00000000
476.80191844	2315.00000000
477.26959902	2400.00000000
477.73732486	2197.00000000
478.20509592	2246.00000000
478.67291216	2259.00000000
479.14077355	2302.00000000
479.60868006	2221.00000000
480.07663163	2262.00000000
480.54462824	2037.00000000
481.01266985	2230.00000000
481.48075642	2152.00000000
481.94888792	2249.00000000
482.41706430	2032.00000000
482.88528554	2130.00000000
483.35355160	2092.00000000
483.82186243	2198.00000000
484.29021801	2239.00000000
484.75861829	2087.00000000
485.22706324	2010.00000000
485.69555282	2184.00000000
486.16408699	2079.00000000
486.63266573	2008.00000000
487.10128898	1992.00000000
487.56995672	2159.00000000
488.03866891	2106.00000000
488.50742551	1948.00000000
488.97622648	1953.00000000
489.44507179	1635.00000000
489.91396139	1911.00000000
490.38289527	1776.00000000
490.85187337	2105.00000000
491.32089566	2125.00000000
491.78996210	2174.00000000
492.25907266	1943.00000000
492.72822730	1313.00000000
493.19742598	2084.00000000
493.66666867	2088.00000000
494.13595533	2120.00000000
494.60528591	2039.00000000
495.07466040	2167.00000000
495.54407874	2038.00000000
496.01354091	2109.00000000
496.48304686	2055.00000000
496.95259656	2135.00000000
497.42218997	2234.00000000
497.89182706	1924.00000000
498.36150779	2191.00000000
498.83123211	2134.00000000
499.30100000	2126.00000000
499.77081142	2281.00000000
500.24066633	2325.00000000
500.71056469	2178.00000000
501.18050648	2222.00000000
501.65049164	2384.00000000
502.12052014	2375.00000000
502.59059195	2429.00000000
503.06070704	2328.00000000
503.53086535	2099.00000000
504.00106686	1951.00000000
504.47131154	2442.00000000
504.94159933	2470.00000000
505.41193021	2428.00000000
505.88230414	2702.00000000
506.35272109	2790.00000000
506.82318101	2870.00000000
507.29368386	2779.00000000
507.76422962	2965.00000000
508.23481825	2965.00000000
508.70544970	2883.00000000
509.17612395	2920.00000000
509.64684095	3129.00000000
510.11760067	3228.00000000
510.58840307	3329.00000000
511.05924812	3375.00000000
511.53013577	3493.00000000
512.00106600	3476.00000000
512.47203875	3694.00000000
512.94305401	3596.00000000
513.41411173	3691.00000000
513.88521187	3831.00000000
514.35635440	3879.00000000
514.82753927	3699.00000000
515.29876647	3856.00000000
515.77003593	4136.00000000
516.24134764	3956.00000000
516.71270155	4292.00000000
517.18409763	4450.00000000
517.65553584	4528.00000000
518.12701614	4549.00000000
518.59853850	4726.00000000
519.07010287	4348.00000000
519.54170923	4843.00000000
520.01335753	4611.00000000
520.48504774	5007.00000000
520.95677983	5123.00000000
521.42855375	5084.00000000
521.90036946	5259.00000000
522.37222694	5271.00000000
522.84412615	5405.00000000
523.31606704	5643.00000000
523.78804958	5703.00000000
524.26007374	5705.00000000
524.73213947	5918.00000000
525.20424675	5923.00000000
525.67639553	6057.00000000
526.14858578	6328.00000000
526.62081745	6095.00000000
527.09309052	6313.00000000
527.56540495	6569.00000000
528.03776070	6478.00000000
528.51015773	6524.00000000
528.98259601	6688.00000000
529.45507550	6565.00000000
529.92759616	6687.00000000
530.40015795	6719.00000000
530.87276085	6754.00000000
531.34540481	6873.00000000
531.81808979	6835.00000000
532.29081576	6730.00000000
532.76358269	6972.00000000
533.23639053	7020.00000000
533.70923924	6867.00000000
534.18212880	7157.00000000
534.65505917	7284.00000000
535.12803030	7249.00000000
535.60104217	7380.00000000
536.07409473	7337.00000000
536.54718794	7360.00000000
537.02032178	7515.00000000
537.49349620	6270.00000000
537.96671117	7448.00000000
538.43996665	7738.00000000
538.91326261	7628.00000000
539.38659900	7316.00000000
539.85997579	7757.00000000
540.33339294	7816.00000000
540.80685042	7535.00000000
541.28034819	7835.00000000
541.75388622	7923.00000000
542.22746446	7337.00000000
542.70108287	7255.00000000
543.17474144	7765.00000000
543.64844010	7867.00000000
544.12217884	7588.00000000
544.59595761	7719.00000000
545.06977637	7860.00000000
545.54363510	7795.00000000
546.01753374	7817.00000000
546.49147227	7749.00000000
546.96545065	7671.00000000
547.43946884	7635.00000000
547.91352680	7544.00000000
548.38762450	7406.00000000
548.86176191	7083.00000000
549.33593897	7564.00000000
549.81015567	7174.00000000
550.28441195	7357.00000000
550.75870779	7337.00000000
551.23304315	6831.00000000
551.70741799	7454.00000000
552.18183227	7442.00000000
552.65628595	7377.00000000
553.13077901	7275.00000000
553.60531140	7100.00000000
554.07988309	7272.00000000
554.55449403	7287.00000000
555.02914420	7372.00000000
555.50383356	7450.00000000
555.97856206	7429.00000000
556.45332968	7037.00000000
556.92813637	7009.00000000
557.40298210	7236.00000000
557.87786683	7195.00000000
558.35279053	7226.00000000
558.82775315	7043.00000000
559.30275467	7255.00000000
559.77779504	7235.00000000
560.25287423	7205.00000000
560.72799221	6924.00000000
561.20314892	7391.00000000
561.67834435	7033.00000000
562.15357844	7148.00000000
562.62885117	7107.00000000
563.10416249	7091.00000000
563.57951238	7033.00000000
564.05490079	7200.00000000
564.53032769	6967.00000000
565.00579303	7137.00000000
565.48129679	6824.00000000
565.95683893	7015.00000000
566.43241940	6936.00000000
566.90803818	6635.00000000
567.38369523	6860.00000000
567.85939050	6545.00000000
568.33512397	6753.00000000
568.81089559	6861.00000000
569.28670533	6807.00000000
569.76255316	6745.00000000
570.23843902	6593.00000000
570.71436290	6705.00000000
571.19032475	6712.00000000
571.66632453	6660.00000000
572.14236222	6597.00000000
572.61843776	6646.00000000
573.09455113	6297.00000000
573.57070228	6569.00000000
574.04689119	6609.00000000
574.52311781	6473.00000000
574.99938211	6462.00000000
575.47568405	6756.00000000
575.95202359	6669.00000000
576.42840070	5907.00000000
576.90481534	6752.00000000
577.38126747	6497.00000000
577.85775706	6774.00000000
578.33428407	6795.00000000
578.81084846	6805.00000000
579.28745020	6634.00000000
579.76408925	6650.00000000
580.24076557	6853.00000000
580.71747912	6252.00000000
581.19422988	6699.00000000
581.67101780	6647.00000000
582.14784284	6859.00000000
582.62470497	6624.00000000
583.10160416	6605.00000000
583.57854035	6674.00000000
584.05551353	6398.00000000
584.53252365	6705.00000000
585.00957067	6691.00000000
585.48665456	6631.00000000
585.96377529	6673.00000000
586.44093280	6717.00000000
586.91812708	6574.00000000
587.39535807	6646.00000000
587.87262575	6525.00000000
588.34993007	6405.00000000
588.82727101	6288.00000000
589.30464852	6461.00000000
589.78206256	6485.00000000
590.25951311	6555.00000000
590.73700012	6368.00000000
591.21452355	6281.00000000
591.69208338	6187.00000000
592.16967956	6473.00000000
592.64731205	6209.00000000
593.12498082	6291.00000000
593.60268584	6504.00000000
594.08042706	6208.00000000
594.55820445	6285.00000000
595.03601797	6026.00000000
595.51386759	6236.00000000
595.99175326	6327.00000000
596.46967496	6056.00000000
596.94763264	6255.00000000
597.42562627	6149.00000000
597.90365581	5913.00000000
598.38172122	6044.00000000
598.85982248	6153.00000000
599.33795953	5821.00000000
599.81613235	5709.00000000
600.29434089	6078.00000000
600.77258513	5759.00000000
601.25086501	6292.00000000
601.72918052	6047.00000000
602.20753161	6148.00000000
602.68591823	6070.00000000
603.16434037	6046.00000000
603.64279797	5747.00000000
604.12129101	5865.00000000
604.59981945	5929.00000000
605.07838324	5983.00000000
605.55698236	5835.00000000
606.03561676	5724.00000000
606.51428641	5904.00000000
606.99299127	5804.00000000
607.47173131	5696.00000000
607.95050648	5732.00000000
608.42931676	5867.00000000
608.90816210	5770.00000000
609.38704248	5689.00000000
609.86595784	5649.00000000
610.34490816	5485.00000000
610.82389339	5638.00000000
611.30291351	5423.00000000
611.78196847	5571.00000000
612.26105823	5291.00000000
612.74018277	5426.00000000
613.21934204	5407.00000000
613.69853601	5432.00000000
614.17776464	5039.00000000
614.65702789	5328.00000000
615.13632573	5200.00000000
615.61565812	5189.00000000
616.09502502	5351.00000000
616.57442640	5081.00000000
617.05386221	4490.00000000
617.53333243	4858.00000000
618.01283702	4772.00000000
618.49237593	5067.00000000
618.97194914	5111.00000000
619.45155660	4785.00000000
619.93119828	5157.00000000
620.41087415	4998.00000000
620.89058415	4907.00000000
621.37032827	4775.00000000
621.85010646	4830.00000000
622.32991868	4741.00000000
622.80976490	4741.00000000
623.28964508	4754.00000000
623.76955919	4676.00000000
624.24950718	4735.00000000
624.72948902	4837.00000000
625.20950468	4746.00000000
625.68955412	4485.00000000
626.16963729	4348.00000000
626.64975417	4629.00000000
627.12990471	4579.00000000
627.61008889	4301.00000000
628.09030666	4635.00000000
628.57055798	4264.00000000
629.05084283	4528.00000000
629.53116115	4479.00000000
630.01151293	4350.00000000
630.49189811	4271.00000000
630.97231666	4209.00000000
631.45276855	4270.00000000
631.93325374	4205.00000000
632.41377219	4080.00000000
632.89432387	3908.00000000
633.37490873	4137.00000000
633.85552675	4025.00000000
634.33617788	4153.00000000
634.81686209	3936.00000000
635.29757934	4045.00000000
635.77832959	3970.00000000
636.25911281	3961.00000000
636.73992897	3981.00000000
637.22077801	3373.00000000
637.70165992	3973.00000000
638.18257464	3840.00000000
638.66352215	3708.00000000
639.14450240	3758.00000000
639.62551537	3646.00000000
640.10656101	3777.00000000
640.58763928	3632.00000000
641.06875016	3593.00000000
641.54989359	3699.00000000
642.03106956	3526.00000000
642.51227801	3674.00000000
642.99351892	3671.00000000
643.47479224	2875.00000000
643.95609794	3506.00000000
644.43743598	3298.00000000
644.91880633	3475.00000000
645.40020894	3369.00000000
645.88164379	3252.00000000
646.36311083	3530.00000000
646.84461003	3434.00000000
647.32614135	3387.00000000
647.80770476	3397.00000000
648.28930022	3403.00000000
648.77092768	3239.00000000
649.25258712	3051.00000000
649.73427850	3129.00000000
650.21600177	3055.00000000
650.69775691	3217.00000000
651.17954388	3165.00000000
651.66136264	3076.00000000
652.14321315	3219.00000000
652.62509538	3141.00000000
653.10700929	2924.00000000
653.58895484	3017.00000000
654.07093200	3188.00000000
654.55294072	3140.00000000
655.03498098	3085.00000000
655.51705274	2851.00000000
655.99915595	2944.00000000
656.48129059	2954.00000000
656.96345661	2797.00000000
657.44565398	2874.00000000
657.92788266	2856.00000000
658.41014262	2859.00000000
658.89243382	2864.00000000
659.37475621	2729.00000000
659.85710978	2785.00000000
660.33949447	2814.00000000
660.82191025	2653.00000000
661.30435708	2783.00000000
661.78683493	2720.00000000
662.26934377	2668.00000000
662.75188354	2783.00000000
663.23445423	2325.00000000
663.71705578	2581.00000000
664.19968817	2775.00000000
664.68235136	2682.00000000
665.16504530	2608.00000000
665.64776997	2496.00000000
666.13052532	2569.00000000
666.61331133	2549.00000000
667.09612794	2421.00000000
667.57897514	2588.00000000
668.06185287	2518.00000000
668.54476110	2423.00000000
669.02769980	2315.00000000
669.51066893	2447.00000000
669.99366845	2570.00000000
670.47669833	2498.00000000
670.95975852	2621.00000000
671.44284900	2429.00000000
671.92596972	2239.00000000
672.40912065	2500.00000000
672.89230175	2538.00000000
673.37551298	2369.00000000
673.85875431	2552.00000000
674.34202570	2385.00000000
674.82532712	2341.00000000
675.30865852	2397.00000000
675.79201988	2344.00000000
676.27541115	2409.00000000
676.75883229	2352.00000000
677.24228328	2466.00000000
677.72576406	2354.00000000
678.20927462	2493.00000000
678.69281490	1942.00000000
679.17638488	2151.00000000
679.65998451	2301.00000000
680.14361377	2341.00000000
680.62727260	2383.00000000
681.11096098	2230.00000000
681.59467887	2225.00000000
682.07842623	2186.00000000
682.56220303	2299.00000000
683.04600923	1927.00000000
683.52984478	2129.00000000
684.01370967	2097.00000000
684.49760384	2357.00000000
684.98152726	2255.00000000
685.46547989	2040.00000000
685.94946171	2244.00000000
686.43347266	2213.00000000
686.91751272	2302.00000000
687.40158185	2185.00000000
687.88568001	2258.00000000
688.36980716	2195.00000000
688.85396327	2165.00000000
689.33814829	2258.00000000
689.82236221	2251.00000000
690.30660496	2231.00000000
690.79087653	2196.00000000
691.27517687	2114.00000000
691.75950595	2276.00000000
692.24386373	2130.00000000
692.72825017	2310.00000000
693.21266523	2077.00000000
693.69710889	2059.00000000
694.18158109	2028.00000000
694.66608181	2123.00000000
695.15061101	2123.00000000
695.63516866	2047.00000000
696.11975470	2079.00000000
696.60436912	2174.00000000
697.08901187	1953.00000000
697.57368291	2111.00000000
698.05838221	1915.00000000
698.54310973	2029.00000000
699.02786544	1866.00000000
699.51264929	2112.00000000
699.99746125	2123.00000000
700.48230129	2137.00000000
700.96716936	2020.00000000
701.45206544	2108.00000000
701.93698948	1969.00000000
702.42194144	1995.00000000
702.90692130	2103.00000000
703.39192900	1768.00000000
703.87696453	2211.00000000
704.36202783	2137.00000000
704.84711888	2096.00000000
705.33223763	2074.00000000
705.81738405	2064.00000000
706.30255811	2172.00000000
706.78775976	2014.00000000
707.27298897	1964.00000000
707.75824570	2037.00000000
708.24352991	1880.00000000
708.72884158	1978.00000000
709.21418065	1986.00000000
709.69954710	1689.00000000
710.18494089	2040.00000000
710.67036198	1911.00000000
711.15581034	1958.00000000
711.64128592	2030.00000000
712.12678869	2071.00000000
712.61231862	2033.00000000
713.09787566	1796.00000000
713.58345979	1988.00000000
714.06907095	1984.00000000
714.55470913	1890.00000000
715.04037427	1977.00000000
715.52606635	1971.00000000
716.01178533	1989.00000000
716.49753116	2041.00000000
716.98330382	2047.00000000
717.46910326	1539.00000000
717.95492946	1789.00000000
718.44078236	1969.00000000
718.92666194	2021.00000000
719.41256816	1981.00000000
719.89850098	1900.00000000
720.38446037	1778.00000000
720.87044629	1914.00000000
721.35645870	1715.00000000
721.84249756	1988.00000000
722.32856284	2012.00000000
722.81465450	1985.00000000
723.30077251	1771.00000000
723.78691682	1882.00000000
724.27308741	1819.00000000
724.75928423	1867.00000000
725.24550724	1680.00000000
725.73175642	1797.00000000
726.21803172	1964.00000000
726.70433311	1909.00000000
727.19066055	1595.00000000
727.67701400	1811.00000000
728.16339343	1987.00000000
728.64979880	1945.00000000
729.13623007	1783.00000000
729.62268721	1921.00000000
730.10917018	1647.00000000
730.59567893	1790.00000000
731.08221345	1876.00000000
731.56877369	1839.00000000
732.05535960	2005.00000000
732.54197116	1980.00000000
733.02860834	1851.00000000
733.51527108	1780.00000000
734.00195936	1732.00000000
734.48867313	1852.00000000
734.97541237	1795.00000000
735.46217703	1989.00000000
735.94896708	1796.00000000
736.43578248	2028.00000000
736.92262320	1960.00000000
737.40948919	1888.00000000
737.89638043	1968.00000000
738.38329686	1966.00000000
738.87023847	1874.00000000
739.35720520	1679.00000000
739.84419703	1900.00000000
740.33121392	1933.00000000
740.81825582	1809.00000000
741.30532271	1436.00000000
741.79241455	1729.00000000
742.27953129	1882.00000000
742.76667291	2000.00000000
743.25383936	1956.00000000
743.74103061	1913.00000000
744.22824663	1942.00000000
744.71548737	1853.00000000
745.20275280	1529.00000000
745.69004288	1952.00000000
746.17735758	1935.00000000
746.66469685	1983.00000000
747.15206067	1780.00000000
747.63944899	1957.00000000
748.12686178	1870.00000000
748.61429900	1387.00000000
749.10176061	1912.00000000
749.58924659	1951.00000000
750.07675688	1957.00000000
750.56429146	1974.00000000
751.05185028	1796.00000000
751.53943332	1841.00000000
752.02704053	1498.00000000
752.51467187	1584.00000000
753.00232732	1605.00000000
753.49000683	1844.00000000
753.97771036	1964.00000000
754.46543789	1774.00000000
754.95318936	1864.00000000
755.44096476	1935.00000000
755.92876403	1817.00000000
756.41658715	1851.00000000
756.90443407	1986.00000000
757.39230476	1767.00000000
757.88019918	1648.00000000
758.36811730	1942.00000000
758.85605908	1900.00000000
759.34402448	1831.00000000
759.83201346	1606.00000000
760.32002599	1826.00000000
760.80806203	1609.00000000
761.29612155	1842.00000000
761.78420451	1860.00000000
762.27231086	1835.00000000
762.76044058	1938.00000000
763.24859363	1819.00000000
763.73676997	1717.00000000
764.22496956	1724.00000000
764.71319237	1797.00000000
765.20143836	1872.00000000
765.68970749	1886.00000000
766.17799973	1392.00000000
766.66631504	1645.00000000
767.15465338	1761.00000000
767.64301472	1672.00000000
768.13139902	1720.00000000
768.61980624	1796.00000000
769.10823635	1825.00000000
769.59668930	1723.00000000
770.08516507	1871.00000000
770.57366361	1704.00000000
771.06218489	1848.00000000
771.55072888	1715.00000000
772.03929553	1730.00000000
772.52788480	1862.00000000
773.01649667	1889.00000000
773.50513109	1549.00000000
773.99378804	1883.00000000
774.48246746	1868.00000000
774.97116932	1735.00000000
775.45989360	1771.00000000
775.94864024	1886.00000000
776.43740922	1711.00000000
776.92620050	1824.00000000
777.41501403	1618.00000000
777.90384979	1909.00000000
778.39270774	1781.00000000
778.88158784	1831.00000000
779.37049004	1872.00000000
779.85941433	1448.00000000
780.34836066	1775.00000000
780.83732898	1905.00000000
781.32631928	1869.00000000
781.81533150	1632.00000000
782.30436562	1651.00000000
782.79342159	1881.00000000
783.28249938	1855.00000000
783.77159895	1752.00000000
784.26072027	1727.00000000
784.74986329	1830.00000000
785.23902799	1792.00000000
785.72821432	1384.00000000
786.21742225	1859.00000000
786.70665174	1468.00000000
787.19590276	1812.00000000
787.68517526	1765.00000000
788.17446922	1150.00000000
788.66378459	1678.00000000
789.15312133	1581.00000000
789.64247942	1873.00000000
790.13185881	1837.00000000
790.62125947	1953.00000000
791.11068135	1761.00000000
791.60012443	1885.00000000
792.08958867	1616.00000000
792.57907402	1855.00000000
793.06858046	1585.00000000
793.55810795	1776.00000000
794.04765644	1747.00000000
794.53722591	1771.00000000
795.02681631	1806.00000000
795.51642762	1706.00000000
796.00605978	1822.00000000
796.49571277	1860.00000000
796.98538655	1809.00000000
797.47508108	1984.00000000
797.96479632	1764.00000000
798.45453224	1873.00000000
798.94428881	1757.00000000
799.43406597	1799.00000000
799.92386371	1764.00000000
800.41368198	1441.00000000
800.90352074	1862.00000000
801.39337996	1692.00000000
801.88325960	1498.00000000
802.37315962	1799.00000000
802.86307999	1811.00000000
803.35302067	1886.00000000
803.84298163	1810.00000000
804.33296282	1733.00000000
804.82296421	1878.00000000
805.31298576	1827.00000000
805.80302744	1785.00000000
806.29308921	1068.00000000
806.78317103	1861.00000000
807.27327287	1812.00000000
807.76339468	1718.00000000
808.25353644	1968.00000000
808.74369811	1892.00000000
809.23387964	1651.00000000
809.72408100	1792.00000000
810.21430216	1713.00000000
810.70454308	1854.00000000
811.19480372	1726.00000000
811.68508405	1803.00000000
812.17538402	1922.00000000
812.66570360	1816.00000000
813.15604276	1859.00000000
813.64640146	1748.00000000
814.13677965	1865.00000000
814.62717731	1882.00000000
815.11759440	1751.00000000
815.60803088	1902.00000000
816.09848671	1907.00000000
816.58896185	1781.00000000
817.07945628	1822.00000000
817.56996995	1495.00000000
818.06050283	1852.00000000
818.55105488	1828.00000000
819.04162606	1756.00000000
819.53221633	1890.00000000
820.02282567	1965.00000000
820.51345402	1868.00000000
821.00410137	1784.00000000
821.49476766	1483.00000000
821.98545286	1757.00000000
822.47615694	1791.00000000
822.96687986	1842.00000000

