S05587
27-06-2016_07:09:58
Saved at time: 748976448 milliseconds
Integration time: 4000000
Scans to average: 0
Boxcar smoothing: 0
Wavelengths	Intensities
337.35134888	1911.00000000
337.80362194	1971.00000000
338.25595141	2054.00000000
338.70833725	1996.00000000
339.16077942	1896.00000000
339.61327788	1841.00000000
340.06583261	1952.00000000
340.51844356	1684.00000000
340.97111069	1756.00000000
341.42383397	1704.00000000
341.87661336	1605.00000000
342.32944883	1753.00000000
342.78234033	1753.00000000
343.23528784	1833.00000000
343.68829131	1991.00000000
344.14135070	1844.00000000
344.59446599	1932.00000000
345.04763714	1784.00000000
345.50086410	1704.00000000
345.95414684	1996.00000000
346.40748532	1839.00000000
346.86087951	1822.00000000
347.31432937	1925.00000000
347.76783486	2015.00000000
348.22139595	1858.00000000
348.67501260	1851.00000000
349.12868478	1929.00000000
349.58241244	1817.00000000
350.03619554	1948.00000000
350.49003406	1887.00000000
350.94392796	1866.00000000
351.39787720	1723.00000000
351.85188173	1853.00000000
352.30594153	1681.00000000
352.76005657	1813.00000000
353.21422679	1693.00000000
353.66845217	1915.00000000
354.12273266	1711.00000000
354.57706824	1762.00000000
355.03145886	1827.00000000
355.48590449	1882.00000000
355.94040509	1915.00000000
356.39496062	1846.00000000
356.84957105	1837.00000000
357.30423634	1927.00000000
357.75895646	1927.00000000
358.21373136	1798.00000000
358.66856102	1675.00000000
359.12344538	1901.00000000
359.57838442	1916.00000000
360.03337811	1583.00000000
360.48842639	1905.00000000
360.94352924	1650.00000000
361.39868662	1882.00000000
361.85389850	1870.00000000
362.30916483	1894.00000000
362.76448558	1944.00000000
363.21986071	1684.00000000
363.67529018	1770.00000000
364.13077397	1916.00000000
364.58631202	1927.00000000
365.04190431	1753.00000000
365.49755080	1660.00000000
365.95325145	1986.00000000
366.40900623	1709.00000000
366.86481509	1924.00000000
367.32067801	1980.00000000
367.77659494	1917.00000000
368.23256584	1966.00000000
368.68859069	1885.00000000
369.14466944	1762.00000000
369.60080206	1909.00000000
370.05698851	1757.00000000
370.51322875	1549.00000000
370.96952275	1713.00000000
371.42587047	1990.00000000
371.88227187	2001.00000000
372.33872691	1982.00000000
372.79523557	1740.00000000
373.25179780	1672.00000000
373.70841357	1874.00000000
374.16508283	1862.00000000
374.62180556	1897.00000000
375.07858171	1971.00000000
375.53541125	1961.00000000
375.99229415	1959.00000000
376.44923035	1610.00000000
376.90621984	1756.00000000
377.36326257	1929.00000000
377.82035850	1766.00000000
378.27750760	1805.00000000
378.73470984	883.00000000
379.19196516	1777.00000000
379.64927355	1950.00000000
380.10663495	1441.00000000
380.56404934	1756.00000000
381.02151668	1832.00000000
381.47903693	1982.00000000
381.93661005	1801.00000000
382.39423600	1717.00000000
382.85191476	1932.00000000
383.30964628	1798.00000000
383.76743053	1779.00000000
384.22526746	1838.00000000
384.68315705	1702.00000000
385.14109926	1945.00000000
385.59909404	1825.00000000
386.05714137	1850.00000000
386.51524120	1868.00000000
386.97339351	1805.00000000
387.43159824	1817.00000000
387.88985537	1888.00000000
388.34816486	1903.00000000
388.80652667	1837.00000000
389.26494076	1936.00000000
389.72340710	1888.00000000
390.18192566	1875.00000000
390.64049638	1850.00000000
391.09911925	1933.00000000
391.55779422	1687.00000000
392.01652125	1934.00000000
392.47530030	1871.00000000
392.93413135	1362.00000000
393.39301436	2017.00000000
393.85194927	1914.00000000
394.31093607	1629.00000000
394.76997472	1854.00000000
395.22906517	1776.00000000
395.68820739	1647.00000000
396.14740134	1944.00000000
396.60664699	2065.00000000
397.06594429	1783.00000000
397.52529322	1970.00000000
397.98469374	1937.00000000
398.44414581	1876.00000000
398.90364938	1657.00000000
399.36320444	1971.00000000
399.82281093	1896.00000000
400.28246882	1864.00000000
400.74217808	2037.00000000
401.20193867	1805.00000000
401.66175054	1901.00000000
402.12161368	1999.00000000
402.58152803	1894.00000000
403.04149356	1836.00000000
403.50151023	2033.00000000
403.96157802	1950.00000000
404.42169687	1931.00000000
404.88186676	1803.00000000
405.34208764	1772.00000000
405.80235949	1915.00000000
406.26268226	1760.00000000
406.72305591	1799.00000000
407.18348042	1997.00000000
407.64395574	2037.00000000
408.10448183	1940.00000000
408.56505866	1654.00000000
409.02568620	1764.00000000
409.48636440	1736.00000000
409.94709324	1852.00000000
410.40787266	1803.00000000
410.86870264	1627.00000000
411.32958314	1913.00000000
411.79051412	1804.00000000
412.25149554	1406.00000000
412.71252738	1631.00000000
413.17360958	1879.00000000
413.63474212	1895.00000000
414.09592496	1956.00000000
414.55715806	2072.00000000
415.01844138	1814.00000000
415.47977490	1781.00000000
415.94115856	1993.00000000
416.40259233	2044.00000000
416.86407619	1664.00000000
417.32561008	1707.00000000
417.78719398	1959.00000000
418.24882784	1801.00000000
418.71051164	2064.00000000
419.17224533	1726.00000000
419.63402887	2044.00000000
420.09586223	2003.00000000
420.55774538	1885.00000000
421.01967827	1879.00000000
421.48166087	1979.00000000
421.94369315	1783.00000000
422.40577506	2037.00000000
422.86790657	1893.00000000
423.33008764	1451.00000000
423.79231823	2097.00000000
424.25459832	2130.00000000
424.71692786	1916.00000000
425.17930681	2071.00000000
425.64173514	2000.00000000
426.10421281	2110.00000000
426.56673978	1960.00000000
427.02931602	1758.00000000
427.49194150	2146.00000000
427.95461617	2310.00000000
428.41733999	2322.00000000
428.88011294	2351.00000000
429.34293497	2401.00000000
429.80580604	2062.00000000
430.26872613	2354.00000000
430.73169519	2529.00000000
431.19471319	2472.00000000
431.65778008	2473.00000000
432.12089584	2541.00000000
432.58406043	2627.00000000
433.04727380	2147.00000000
433.51053593	2619.00000000
433.97384677	2993.00000000
434.43720630	2919.00000000
434.90061446	2695.00000000
435.36407123	3305.00000000
435.82757657	3614.00000000
436.29113044	3337.00000000
436.75473281	3575.00000000
437.21838363	3687.00000000
437.68208288	3750.00000000
438.14583051	4163.00000000
438.60962648	3972.00000000
439.07347077	4237.00000000
439.53736333	4576.00000000
440.00130413	4582.00000000
440.46529314	5038.00000000
440.92933030	5093.00000000
441.39341559	5027.00000000
441.85754898	5502.00000000
442.32173041	5828.00000000
442.78595986	6141.00000000
443.25023730	6255.00000000
443.71456267	6488.00000000
444.17893595	7060.00000000
444.64335711	7331.00000000
445.10782609	7079.00000000
445.57234287	7695.00000000
446.03690741	8008.00000000
446.50151967	7995.00000000
446.96617962	8223.00000000
447.43088721	8252.00000000
447.89564242	8436.00000000
448.36044520	8589.00000000
448.82529553	8365.00000000
449.29019335	8347.00000000
449.75513864	7848.00000000
450.22013135	7875.00000000
450.68517146	7645.00000000
451.15025892	7247.00000000
451.61539370	6863.00000000
452.08057576	6851.00000000
452.54580506	6665.00000000
453.01108157	6400.00000000
453.47640525	6175.00000000
453.94177607	5834.00000000
454.40719398	5574.00000000
454.87265895	5278.00000000
455.33817095	5353.00000000
455.80372993	5137.00000000
456.26933586	5129.00000000
456.73498870	4933.00000000
457.20068842	5004.00000000
457.66643498	4894.00000000
458.13222835	4273.00000000
458.59806847	3684.00000000
459.06395533	4583.00000000
459.52988888	4307.00000000
459.99586908	4521.00000000
460.46189590	4522.00000000
460.92796931	4035.00000000
461.39408926	4285.00000000
461.86025571	3982.00000000
462.32646864	4053.00000000
462.79272800	3950.00000000
463.25903377	3933.00000000
463.72538589	3840.00000000
464.19178433	3624.00000000
464.65822906	3364.00000000
465.12472005	3465.00000000
465.59125725	3355.00000000
466.05784062	3340.00000000
466.52447013	3229.00000000
466.99114575	3031.00000000
467.45786744	3038.00000000
467.92463515	2947.00000000
468.39144886	2891.00000000
468.85830852	2706.00000000
469.32521410	2784.00000000
469.79216557	2835.00000000
470.25916288	2701.00000000
470.72620600	2718.00000000
471.19329489	2539.00000000
471.66042952	2573.00000000
472.12760985	2645.00000000
472.59483583	2550.00000000
473.06210745	2491.00000000
473.52942465	2635.00000000
473.99678740	2734.00000000
474.46419567	2223.00000000
474.93164941	2470.00000000
475.39914860	2494.00000000
475.86669319	2238.00000000
476.33428315	2591.00000000
476.80191844	2381.00000000
477.26959902	2468.00000000
477.73732486	2260.00000000
478.20509592	2302.00000000
478.67291216	2316.00000000
479.14077355	2358.00000000
479.60868006	2271.00000000
480.07663163	2314.00000000
480.54462824	2082.00000000
481.01266985	2279.00000000
481.48075642	2194.00000000
481.94888792	2293.00000000
482.41706430	2075.00000000
482.88528554	2167.00000000
483.35355160	2124.00000000
483.82186243	2233.00000000
484.29021801	2276.00000000
484.75861829	2119.00000000
485.22706324	2046.00000000
485.69555282	2216.00000000
486.16408699	2109.00000000
486.63266573	2032.00000000
487.10128898	2017.00000000
487.56995672	2187.00000000
488.03866891	2136.00000000
488.50742551	1981.00000000
488.97622648	1981.00000000
489.44507179	1664.00000000
489.91396139	1933.00000000
490.38289527	1806.00000000
490.85187337	2140.00000000
491.32089566	2161.00000000
491.78996210	2205.00000000
492.25907266	1978.00000000
492.72822730	1346.00000000
493.19742598	2121.00000000
493.66666867	2125.00000000
494.13595533	2162.00000000
494.60528591	2085.00000000
495.07466040	2209.00000000
495.54407874	2076.00000000
496.01354091	2151.00000000
496.48304686	2085.00000000
496.95259656	2181.00000000
497.42218997	2278.00000000
497.89182706	1963.00000000
498.36150779	2237.00000000
498.83123211	2198.00000000
499.30100000	2172.00000000
499.77081142	2339.00000000
500.24066633	2381.00000000
500.71056469	2242.00000000
501.18050648	2294.00000000
501.65049164	2447.00000000
502.12052014	2443.00000000
502.59059195	2502.00000000
503.06070704	2418.00000000
503.53086535	2187.00000000
504.00106686	2039.00000000
504.47131154	2538.00000000
504.94159933	2568.00000000
505.41193021	2537.00000000
505.88230414	2815.00000000
506.35272109	2910.00000000
506.82318101	2998.00000000
507.29368386	2914.00000000
507.76422962	3105.00000000
508.23481825	3115.00000000
508.70544970	3040.00000000
509.17612395	3082.00000000
509.64684095	3302.00000000
510.11760067	3413.00000000
510.58840307	3526.00000000
511.05924812	3572.00000000
511.53013577	3708.00000000
512.00106600	3710.00000000
512.47203875	3935.00000000
512.94305401	3843.00000000
513.41411173	3957.00000000
513.88521187	4114.00000000
514.35635440	4160.00000000
514.82753927	3983.00000000
515.29876647	4164.00000000
515.77003593	4457.00000000
516.24134764	4297.00000000
516.71270155	4634.00000000
517.18409763	4806.00000000
517.65553584	4896.00000000
518.12701614	4929.00000000
518.59853850	5130.00000000
519.07010287	4750.00000000
519.54170923	5261.00000000
520.01335753	5044.00000000
520.48504774	5461.00000000
520.95677983	5586.00000000
521.42855375	5557.00000000
521.90036946	5736.00000000
522.37222694	5780.00000000
522.84412615	5923.00000000
523.31606704	6174.00000000
523.78804958	6246.00000000
524.26007374	6259.00000000
524.73213947	6496.00000000
525.20424675	6504.00000000
525.67639553	6669.00000000
526.14858578	6940.00000000
526.62081745	6740.00000000
527.09309052	6946.00000000
527.56540495	7230.00000000
528.03776070	7148.00000000
528.51015773	7192.00000000
528.98259601	7375.00000000
529.45507550	7263.00000000
529.92759616	7373.00000000
530.40015795	7407.00000000
530.87276085	7451.00000000
531.34540481	7571.00000000
531.81808979	7549.00000000
532.29081576	7439.00000000
532.76358269	7694.00000000
533.23639053	7761.00000000
533.70923924	7599.00000000
534.18212880	7893.00000000
534.65505917	8030.00000000
535.12803030	7999.00000000
535.60104217	8152.00000000
536.07409473	8111.00000000
536.54718794	8137.00000000
537.02032178	8298.00000000
537.49349620	7056.00000000
537.96671117	8231.00000000
538.43996665	8541.00000000
538.91326261	8439.00000000
539.38659900	8099.00000000
539.85997579	8555.00000000
540.33339294	8637.00000000
540.80685042	8364.00000000
541.28034819	8660.00000000
541.75388622	8724.00000000
542.22746446	8085.00000000
542.70108287	7973.00000000
543.17474144	8540.00000000
543.64844010	8669.00000000
544.12217884	8385.00000000
544.59595761	8520.00000000
545.06977637	8653.00000000
545.54363510	8586.00000000
546.01753374	8599.00000000
546.49147227	8529.00000000
546.96545065	8461.00000000
547.43946884	8417.00000000
547.91352680	8318.00000000
548.38762450	8171.00000000
548.86176191	7845.00000000
549.33593897	8322.00000000
549.81015567	7920.00000000
550.28441195	8115.00000000
550.75870779	8069.00000000
551.23304315	7558.00000000
551.70741799	8191.00000000
552.18183227	8176.00000000
552.65628595	8111.00000000
553.13077901	8001.00000000
553.60531140	7829.00000000
554.07988309	8009.00000000
554.55449403	8009.00000000
555.02914420	8094.00000000
555.50383356	8159.00000000
555.97856206	8163.00000000
556.45332968	7731.00000000
556.92813637	7732.00000000
557.40298210	7957.00000000
557.87786683	7915.00000000
558.35279053	7937.00000000
558.82775315	7767.00000000
559.30275467	7964.00000000
559.77779504	7939.00000000
560.25287423	7916.00000000
560.72799221	7615.00000000
561.20314892	8083.00000000
561.67834435	7727.00000000
562.15357844	7845.00000000
562.62885117	7797.00000000
563.10416249	7763.00000000
563.57951238	7732.00000000
564.05490079	7893.00000000
564.53032769	7641.00000000
565.00579303	7811.00000000
565.48129679	7497.00000000
565.95683893	7665.00000000
566.43241940	7587.00000000
566.90803818	7293.00000000
567.38369523	7524.00000000
567.85939050	7188.00000000
568.33512397	7374.00000000
568.81089559	7485.00000000
569.28670533	7429.00000000
569.76255316	7370.00000000
570.23843902	7207.00000000
570.71436290	7315.00000000
571.19032475	7323.00000000
571.66632453	7277.00000000
572.14236222	7201.00000000
572.61843776	7249.00000000
573.09455113	6901.00000000
573.57070228	7174.00000000
574.04689119	7216.00000000
574.52311781	7071.00000000
574.99938211	7057.00000000
575.47568405	7354.00000000
575.95202359	7278.00000000
576.42840070	6502.00000000
576.90481534	7365.00000000
577.38126747	7103.00000000
577.85775706	7377.00000000
578.33428407	7407.00000000
578.81084846	7415.00000000
579.28745020	7229.00000000
579.76408925	7266.00000000
580.24076557	7457.00000000
580.71747912	6861.00000000
581.19422988	7301.00000000
581.67101780	7245.00000000
582.14784284	7477.00000000
582.62470497	7236.00000000
583.10160416	7199.00000000
583.57854035	7272.00000000
584.05551353	6988.00000000
584.53252365	7294.00000000
585.00957067	7291.00000000
585.48665456	7211.00000000
585.96377529	7249.00000000
586.44093280	7280.00000000
586.91812708	7148.00000000
587.39535807	7216.00000000
587.87262575	7086.00000000
588.34993007	6970.00000000
588.82727101	6852.00000000
589.30464852	6999.00000000
589.78206256	7035.00000000
590.25951311	7118.00000000
590.73700012	6910.00000000
591.21452355	6829.00000000
591.69208338	6739.00000000
592.16967956	7007.00000000
592.64731205	6754.00000000
593.12498082	6822.00000000
593.60268584	7037.00000000
594.08042706	6749.00000000
594.55820445	6823.00000000
595.03601797	6557.00000000
595.51386759	6763.00000000
595.99175326	6850.00000000
596.46967496	6591.00000000
596.94763264	6791.00000000
597.42562627	6671.00000000
597.90365581	6425.00000000
598.38172122	6556.00000000
598.85982248	6673.00000000
599.33795953	6343.00000000
599.81613235	6228.00000000
600.29434089	6595.00000000
600.77258513	6263.00000000
601.25086501	6795.00000000
601.72918052	6558.00000000
602.20753161	6659.00000000
602.68591823	6571.00000000
603.16434037	6553.00000000
603.64279797	6251.00000000
604.12129101	6359.00000000
604.59981945	6423.00000000
605.07838324	6464.00000000
605.55698236	6315.00000000
606.03561676	6206.00000000
606.51428641	6380.00000000
606.99299127	6267.00000000
607.47173131	6169.00000000
607.95050648	6209.00000000
608.42931676	6325.00000000
608.90816210	6218.00000000
609.38704248	6125.00000000
609.86595784	6087.00000000
610.34490816	5923.00000000
610.82389339	6082.00000000
611.30291351	5853.00000000
611.78196847	6010.00000000
612.26105823	5725.00000000
612.74018277	5845.00000000
613.21934204	5821.00000000
613.69853601	5847.00000000
614.17776464	5437.00000000
614.65702789	5733.00000000
615.13632573	5602.00000000
615.61565812	5591.00000000
616.09502502	5744.00000000
616.57442640	5467.00000000
617.05386221	4879.00000000
617.53333243	5236.00000000
618.01283702	5148.00000000
618.49237593	5442.00000000
618.97194914	5480.00000000
619.45155660	5163.00000000
619.93119828	5529.00000000
620.41087415	5365.00000000
620.89058415	5271.00000000
621.37032827	5139.00000000
621.85010646	5194.00000000
622.32991868	5093.00000000
622.80976490	5078.00000000
623.28964508	5103.00000000
623.76955919	5023.00000000
624.24950718	5076.00000000
624.72948902	5179.00000000
625.20950468	5072.00000000
625.68955412	4820.00000000
626.16963729	4669.00000000
626.64975417	4945.00000000
627.12990471	4899.00000000
627.61008889	4623.00000000
628.09030666	4949.00000000
628.57055798	4573.00000000
629.05084283	4830.00000000
629.53116115	4775.00000000
630.01151293	4650.00000000
630.49189811	4572.00000000
630.97231666	4499.00000000
631.45276855	4550.00000000
631.93325374	4484.00000000
632.41377219	4358.00000000
632.89432387	4181.00000000
633.37490873	4405.00000000
633.85552675	4282.00000000
634.33617788	4417.00000000
634.81686209	4197.00000000
635.29757934	4301.00000000
635.77832959	4211.00000000
636.25911281	4207.00000000
636.73992897	4228.00000000
637.22077801	3607.00000000
637.70165992	4203.00000000
638.18257464	4062.00000000
638.66352215	3939.00000000
639.14450240	3977.00000000
639.62551537	3864.00000000
640.10656101	3996.00000000
640.58763928	3843.00000000
641.06875016	3794.00000000
641.54989359	3902.00000000
642.03106956	3730.00000000
642.51227801	3867.00000000
642.99351892	3860.00000000
643.47479224	3069.00000000
643.95609794	3701.00000000
644.43743598	3492.00000000
644.91880633	3655.00000000
645.40020894	3546.00000000
645.88164379	3434.00000000
646.36311083	3711.00000000
646.84461003	3613.00000000
647.32614135	3558.00000000
647.80770476	3569.00000000
648.28930022	3574.00000000
648.77092768	3401.00000000
649.25258712	3212.00000000
649.73427850	3289.00000000
650.21600177	3226.00000000
650.69775691	3371.00000000
651.17954388	3326.00000000
651.66136264	3227.00000000
652.14321315	3360.00000000
652.62509538	3297.00000000
653.10700929	3068.00000000
653.58895484	3157.00000000
654.07093200	3320.00000000
654.55294072	3262.00000000
655.03498098	3230.00000000
655.51705274	2986.00000000
655.99915595	3076.00000000
656.48129059	3081.00000000
656.96345661	2924.00000000
657.44565398	3009.00000000
657.92788266	2981.00000000
658.41014262	2985.00000000
658.89243382	2972.00000000
659.37475621	2853.00000000
659.85710978	2903.00000000
660.33949447	2926.00000000
660.82191025	2759.00000000
661.30435708	2898.00000000
661.78683493	2834.00000000
662.26934377	2772.00000000
662.75188354	2890.00000000
663.23445423	2418.00000000
663.71705578	2676.00000000
664.19968817	2867.00000000
664.68235136	2777.00000000
665.16504530	2702.00000000
665.64776997	2586.00000000
666.13052532	2663.00000000
666.61331133	2642.00000000
667.09612794	2506.00000000
667.57897514	2667.00000000
668.06185287	2597.00000000
668.54476110	2502.00000000
669.02769980	2400.00000000
669.51066893	2524.00000000
669.99366845	2645.00000000
670.47669833	2581.00000000
670.95975852	2697.00000000
671.44284900	2499.00000000
671.92596972	2308.00000000
672.40912065	2572.00000000
672.89230175	2602.00000000
673.37551298	2439.00000000
673.85875431	2613.00000000
674.34202570	2450.00000000
674.82532712	2407.00000000
675.30865852	2467.00000000
675.79201988	2407.00000000
676.27541115	2468.00000000
676.75883229	2416.00000000
677.24228328	2524.00000000
677.72576406	2402.00000000
678.20927462	2545.00000000
678.69281490	2005.00000000
679.17638488	2213.00000000
679.65998451	2357.00000000
680.14361377	2396.00000000
680.62727260	2429.00000000
681.11096098	2284.00000000
681.59467887	2281.00000000
682.07842623	2243.00000000
682.56220303	2355.00000000
683.04600923	1977.00000000
683.52984478	2176.00000000
684.01370967	2141.00000000
684.49760384	2408.00000000
684.98152726	2295.00000000
685.46547989	2081.00000000
685.94946171	2297.00000000
686.43347266	2252.00000000
686.91751272	2349.00000000
687.40158185	2225.00000000
687.88568001	2298.00000000
688.36980716	2237.00000000
688.85396327	2208.00000000
689.33814829	2301.00000000
689.82236221	2297.00000000
690.30660496	2272.00000000
690.79087653	2235.00000000
691.27517687	2158.00000000
691.75950595	2317.00000000
692.24386373	2167.00000000
692.72825017	2346.00000000
693.21266523	2117.00000000
693.69710889	2088.00000000
694.18158109	2058.00000000
694.66608181	2156.00000000
695.15061101	2162.00000000
695.63516866	2079.00000000
696.11975470	2112.00000000
696.60436912	2203.00000000
697.08901187	1988.00000000
697.57368291	2140.00000000
698.05838221	1937.00000000
698.54310973	2055.00000000
699.02786544	1903.00000000
699.51264929	2144.00000000
699.99746125	2148.00000000
700.48230129	2165.00000000
700.96716936	2049.00000000
701.45206544	2137.00000000
701.93698948	1997.00000000
702.42194144	2028.00000000
702.90692130	2128.00000000
703.39192900	1793.00000000
703.87696453	2241.00000000
704.36202783	2164.00000000
704.84711888	2125.00000000
705.33223763	2105.00000000
705.81738405	2088.00000000
706.30255811	2199.00000000
706.78775976	2035.00000000
707.27298897	1986.00000000
707.75824570	2061.00000000
708.24352991	1900.00000000
708.72884158	2003.00000000
709.21418065	2010.00000000
709.69954710	1709.00000000
710.18494089	2058.00000000
710.67036198	1930.00000000
711.15581034	1974.00000000
711.64128592	2052.00000000
712.12678869	2082.00000000
712.61231862	2053.00000000
713.09787566	1812.00000000
713.58345979	2011.00000000
714.06907095	1999.00000000
714.55470913	1910.00000000
715.04037427	2001.00000000
715.52606635	1987.00000000
716.01178533	2005.00000000
716.49753116	2055.00000000
716.98330382	2063.00000000
717.46910326	1557.00000000
717.95492946	1806.00000000
718.44078236	1981.00000000
718.92666194	2035.00000000
719.41256816	1989.00000000
719.89850098	1918.00000000
720.38446037	1788.00000000
720.87044629	1919.00000000
721.35645870	1735.00000000
721.84249756	2000.00000000
722.32856284	2018.00000000
722.81465450	1998.00000000
723.30077251	1779.00000000
723.78691682	1898.00000000
724.27308741	1830.00000000
724.75928423	1879.00000000
725.24550724	1688.00000000
725.73175642	1807.00000000
726.21803172	1974.00000000
726.70433311	1920.00000000
727.19066055	1611.00000000
727.67701400	1817.00000000
728.16339343	2002.00000000
728.64979880	1954.00000000
729.13623007	1794.00000000
729.62268721	1930.00000000
730.10917018	1656.00000000
730.59567893	1800.00000000
731.08221345	1890.00000000
731.56877369	1850.00000000
732.05535960	2012.00000000
732.54197116	1989.00000000
733.02860834	1857.00000000
733.51527108	1795.00000000
734.00195936	1740.00000000
734.48867313	1860.00000000
734.97541237	1802.00000000
735.46217703	2001.00000000
735.94896708	1801.00000000
736.43578248	2031.00000000
736.92262320	1964.00000000
737.40948919	1899.00000000
737.89638043	1969.00000000
738.38329686	1972.00000000
738.87023847	1878.00000000
739.35720520	1687.00000000
739.84419703	1901.00000000
740.33121392	1929.00000000
740.81825582	1817.00000000
741.30532271	1441.00000000
741.79241455	1731.00000000
742.27953129	1887.00000000
742.76667291	2007.00000000
743.25383936	1972.00000000
743.74103061	1918.00000000
744.22824663	1952.00000000
744.71548737	1855.00000000
745.20275280	1537.00000000
745.69004288	1958.00000000
746.17735758	1930.00000000
746.66469685	1992.00000000
747.15206067	1783.00000000
747.63944899	1954.00000000
748.12686178	1878.00000000
748.61429900	1394.00000000
749.10176061	1924.00000000
749.58924659	1955.00000000
750.07675688	1956.00000000
750.56429146	1981.00000000
751.05185028	1802.00000000
751.53943332	1852.00000000
752.02704053	1494.00000000
752.51467187	1586.00000000
753.00232732	1608.00000000
753.49000683	1847.00000000
753.97771036	1972.00000000
754.46543789	1779.00000000
754.95318936	1871.00000000
755.44096476	1936.00000000
755.92876403	1816.00000000
756.41658715	1859.00000000
756.90443407	1983.00000000
757.39230476	1768.00000000
757.88019918	1653.00000000
758.36811730	1949.00000000
758.85605908	1904.00000000
759.34402448	1836.00000000
759.83201346	1612.00000000
760.32002599	1830.00000000
760.80806203	1612.00000000
761.29612155	1849.00000000
761.78420451	1863.00000000
762.27231086	1841.00000000
762.76044058	1941.00000000
763.24859363	1821.00000000
763.73676997	1723.00000000
764.22496956	1729.00000000
764.71319237	1803.00000000
765.20143836	1878.00000000
765.68970749	1893.00000000
766.17799973	1398.00000000
766.66631504	1640.00000000
767.15465338	1764.00000000
767.64301472	1674.00000000
768.13139902	1721.00000000
768.61980624	1800.00000000
769.10823635	1830.00000000
769.59668930	1732.00000000
770.08516507	1872.00000000
770.57366361	1708.00000000
771.06218489	1854.00000000
771.55072888	1719.00000000
772.03929553	1735.00000000
772.52788480	1868.00000000
773.01649667	1890.00000000
773.50513109	1549.00000000
773.99378804	1881.00000000
774.48246746	1873.00000000
774.97116932	1739.00000000
775.45989360	1775.00000000
775.94864024	1890.00000000
776.43740922	1717.00000000
776.92620050	1829.00000000
777.41501403	1620.00000000
777.90384979	1917.00000000
778.39270774	1785.00000000
778.88158784	1830.00000000
779.37049004	1865.00000000
779.85941433	1449.00000000
780.34836066	1783.00000000
780.83732898	1901.00000000
781.32631928	1871.00000000
781.81533150	1638.00000000
782.30436562	1656.00000000
782.79342159	1877.00000000
783.28249938	1853.00000000
783.77159895	1753.00000000
784.26072027	1723.00000000
784.74986329	1835.00000000
785.23902799	1801.00000000
785.72821432	1385.00000000
786.21742225	1863.00000000
786.70665174	1473.00000000
787.19590276	1814.00000000
787.68517526	1768.00000000
788.17446922	1154.00000000
788.66378459	1678.00000000
789.15312133	1575.00000000
789.64247942	1872.00000000
790.13185881	1841.00000000
790.62125947	1953.00000000
791.11068135	1765.00000000
791.60012443	1889.00000000
792.08958867	1622.00000000
792.57907402	1856.00000000
793.06858046	1584.00000000
793.55810795	1778.00000000
794.04765644	1744.00000000
794.53722591	1777.00000000
795.02681631	1808.00000000
795.51642762	1702.00000000
796.00605978	1824.00000000
796.49571277	1856.00000000
796.98538655	1811.00000000
797.47508108	1986.00000000
797.96479632	1768.00000000
798.45453224	1881.00000000
798.94428881	1757.00000000
799.43406597	1800.00000000
799.92386371	1767.00000000
800.41368198	1444.00000000
800.90352074	1868.00000000
801.39337996	1682.00000000
801.88325960	1495.00000000
802.37315962	1804.00000000
802.86307999	1819.00000000
803.35302067	1880.00000000
803.84298163	1815.00000000
804.33296282	1732.00000000
804.82296421	1885.00000000
805.31298576	1822.00000000
805.80302744	1786.00000000
806.29308921	1068.00000000
806.78317103	1865.00000000
807.27327287	1812.00000000
807.76339468	1717.00000000
808.25353644	1965.00000000
808.74369811	1897.00000000
809.23387964	1654.00000000
809.72408100	1794.00000000
810.21430216	1712.00000000
810.70454308	1854.00000000
811.19480372	1725.00000000
811.68508405	1804.00000000
812.17538402	1923.00000000
812.66570360	1818.00000000
813.15604276	1860.00000000
813.64640146	1743.00000000
814.13677965	1859.00000000
814.62717731	1883.00000000
815.11759440	1752.00000000
815.60803088	1904.00000000
816.09848671	1912.00000000
816.58896185	1773.00000000
817.07945628	1825.00000000
817.56996995	1491.00000000
818.06050283	1848.00000000
818.55105488	1835.00000000
819.04162606	1758.00000000
819.53221633	1892.00000000
820.02282567	1969.00000000
820.51345402	1874.00000000
821.00410137	1790.00000000
821.49476766	1481.00000000
821.98545286	1764.00000000
822.47615694	1792.00000000
822.96687986	1839.00000000

